File: 2025_cau11-acetone/AIF_adorption_information_files/cau11-water.aif
#adsorption/desorption data for CAU-11/water
data_cau-11water
_exptl_adsorptive Water
_exptl_temperature 298
_sample_material_id 'CAU-11'
_units_temperature K
_units_pressure Torr
_units_loading mmol/g

loop_
_adsorp_pressure
_adsorp_p0
_adsorp_amount
0.16 0.0069 0.04
0.27 0.0115 0.054
1.16 0.0497 0.114
2.6 0.1115 0.174
4.82 0.2065 0.258
7.39 0.3164 0.362
9.64 0.413 0.469
9.75 0.4175 0.476
10.6 0.4539 0.518
10.86 0.4649 0.533
11.63 0.498 0.575
12.04 0.5157 0.6
13.23 0.5665 0.678
13.98 0.5987 0.731
14.32 0.613 0.758
14.97 0.641 0.812
15.93 0.682 0.904
16.19 0.6933 0.934
16.64 0.7124 0.987
17.43 0.7464 1.096
17.94 0.768 1.181
18.69 0.8003 1.341
19.77 0.8465 1.691
20.87 0.8938 2.507
21.36 0.9147 3.65
21.58 0.9242 4.607
21.87 0.9365 5.594
22.03 0.9432 5.972
22.39 0.9588 6.845
22.8 0.9762 8.233
loop_
_desorp_pressure
_desorp_p0
_desorp_amount
222.92 0.9816 8.863
22.36 0.9576 8.659
21.93 0.9388 7.968
21.65 0.9272 7.234
21.35 0.9141 6.524
21.2 0.9079 6.173
20.93 0.896 5.477
20.75 0.8886 4.752
20.63 0.8835 4.015
20.45 0.8758 3.293
20.03 0.8575 2.568
18.99 0.8134 1.868
18.91 0.8098 1.82
17.43 0.7461 1.394
16.57 0.7097 1.239
14.52 0.6219 0.994
14.24 0.6097 0.967
12.97 0.5555 0.869
12.35 0.529 0.826
11.77 0.5042 0.787
10.64 0.4557 0.721
9.7 0.4154 0.671
9.33 0.3996 0.649
8.29 0.3548 0.582
6.8 0.2913 0.49
5.49 0.2351 0.431
4.25 0.1818 0.379
3.58 0.1532 0.352
2.25 0.0964 0.302